Wavelength,Absorbance
200,0.403
201,0.513
202,0.651
203,0.795
204,0.908
205,0.983
206,1.042
207,1.054
208,1.061
209,1.037
210,1.009
211,0.971
212,0.925
213,0.874
214,0.816
215,0.757
216,0.689
217,0.625
218,0.560
219,0.501
220,0.448
221,0.402
222,0.365
223,0.333
224,0.308
225,0.288
226,0.272
227,0.260
228,0.250
229,0.242
230,0.237
231,0.233
232,0.230
233,0.228
234,0.228
235,0.228
236,0.231
237,0.234
238,0.239
239,0.246
240,0.255
241,0.264
242,0.274
243,0.284
244,0.298
245,0.314
246,0.329
247,0.342
248,0.356
249,0.373
250,0.392
251,0.409
252,0.425
253,0.438
254,0.450
255,0.461
256,0.471
257,0.479
258,0.485
259,0.488
260,0.488
261,0.486
262,0.482
263,0.474
264,0.463
265,0.449
266,0.433
267,0.415
268,0.394
269,0.370
270,0.344
271,0.318
272,0.292
273,0.268
274,0.243
275,0.219
276,0.197
277,0.176
278,0.157
279,0.138
280,0.121
281,0.106
282,0.093
283,0.081
284,0.072
285,0.064
286,0.059
287,0.055
288,0.053
289,0.051
290,0.051
291,0.051
292,0.052
293,0.053
294,0.054
295,0.056
296,0.058
297,0.060
298,0.062
299,0.065
300,0.069
301,0.072
302,0.076
303,0.079
304,0.083
305,0.086
306,0.090
307,0.094
308,0.099
309,0.103
310,0.107
311,0.111
312,0.116
313,0.121
314,0.125
315,0.130
316,0.135
317,0.139
318,0.143
319,0.148
320,0.152
321,0.156
322,0.160
323,0.164
324,0.168
325,0.171
326,0.174
327,0.178
328,0.182
329,0.185
330,0.188
331,0.191
332,0.193
333,0.195
334,0.197
335,0.198
336,0.199
337,0.200
338,0.201
339,0.201
340,0.201
341,0.200
342,0.199
343,0.198
344,0.197
345,0.196
346,0.193
347,0.191
348,0.188
349,0.185
350,0.182
351,0.179
352,0.175
353,0.171
354,0.167
355,0.162
356,0.158
357,0.153
358,0.148
359,0.143
360,0.138
361,0.133
362,0.128
363,0.122
364,0.116
365,0.110
366,0.105
367,0.100
368,0.095
369,0.089
370,0.084
371,0.079
372,0.074
373,0.068
374,0.064
375,0.060
376,0.055
377,0.051
378,0.047
379,0.043
380,0.039
381,0.035
382,0.032
383,0.029
384,0.026
385,0.023
386,0.020
387,0.018
388,0.016
389,0.014
390,0.012
391,0.010
392,0.009
393,0.008
394,0.007
395,0.006
396,0.005
397,0.004
398,0.003
399,0.003
400,0.002
401,0.001
402,0.001
403,0.000
404,0.000
405,0.000
406,0.000
407,0.000
408,-0.001
409,-0.001
410,-0.001
411,-0.001
412,-0.001
413,-0.002
414,-0.002
415,-0.002
416,-0.002
417,-0.001
418,-0.001
419,-0.002
420,-0.002
421,-0.002
422,-0.002
423,-0.002
424,-0.002
425,-0.002
426,-0.002
427,-0.002
428,-0.002
429,-0.002
430,-0.002
431,-0.002
432,-0.002
433,-0.002
434,-0.002
435,-0.002
436,-0.002
437,-0.003
438,-0.003
439,-0.002
440,-0.002
441,-0.002
442,-0.002
443,-0.002
444,-0.002
445,-0.002
446,-0.002
447,-0.002
448,-0.002
449,-0.002
450,-0.002
451,-0.003
452,-0.003
453,-0.002
454,-0.002
455,-0.002
456,-0.002
457,-0.002
458,-0.002
459,-0.003
460,-0.003
461,-0.003
462,-0.002
463,-0.002
464,-0.002
465,-0.002
466,-0.002
467,-0.002
468,-0.002
469,-0.002
470,-0.002
471,-0.002
472,-0.002
473,-0.002
474,-0.002
475,-0.002
476,-0.002
477,-0.003
478,-0.003
479,-0.002
480,-0.002
481,-0.003
482,-0.003
483,-0.002
484,-0.002
485,-0.002
486,-0.002
487,-0.002
488,-0.002
489,-0.002
490,-0.002
491,-0.002
492,-0.002
493,-0.002
494,-0.002
495,-0.002
496,-0.002
497,-0.002
498,-0.002
499,-0.002
500,-0.002
501,-0.002
502,-0.002
503,-0.002
504,-0.002
505,-0.002
506,-0.002
507,-0.002
508,-0.003
509,-0.002
510,-0.002
511,-0.002
512,-0.002
513,-0.002
514,-0.002
515,-0.002
516,-0.003
517,-0.002
518,-0.002
519,-0.002
520,-0.002
521,-0.002
522,-0.002
523,-0.002
524,-0.002
525,-0.002
526,-0.002
527,-0.002
528,-0.002
529,-0.002
530,-0.002
531,-0.002
532,-0.002
533,-0.003
534,-0.003
535,-0.003
536,-0.003
537,-0.003
538,-0.002
539,-0.002
540,-0.002
541,-0.002
542,-0.002
543,-0.002
544,-0.002
545,-0.002
546,-0.002
547,-0.002
548,-0.003
549,-0.003
550,-0.003
551,-0.003
552,-0.003
553,-0.003
554,-0.003
555,-0.003
556,-0.002
557,-0.002
558,-0.002
559,-0.002
560,-0.003
561,-0.003
562,-0.003
563,-0.002
564,-0.002
565,-0.003
566,-0.003
567,-0.002
568,-0.002
569,-0.002
570,-0.002
571,-0.002
572,-0.002
573,-0.002
574,-0.003
575,-0.002
576,-0.002
577,-0.003
578,-0.003
579,-0.003
580,-0.002
581,-0.002
582,-0.002
583,-0.002
584,-0.003
585,-0.003
586,-0.003
587,-0.002
588,-0.002
589,-0.002
590,-0.003
591,-0.003
592,-0.003
593,-0.003
594,-0.003
595,-0.003
596,-0.003
597,-0.003
598,-0.002
599,-0.003
600,-0.002
601,-0.003
602,-0.003
603,-0.003
604,-0.003
605,-0.002
606,-0.002
607,-0.002
608,-0.002
609,-0.002
610,-0.002
611,-0.001
612,-0.001
613,-0.002
614,-0.002
615,-0.002
616,-0.002
617,-0.002
618,-0.002
619,-0.002
620,-0.002
621,-0.002
622,-0.002
623,-0.002
624,-0.002
625,-0.002
626,-0.002
627,-0.002
628,-0.002
629,-0.002
630,-0.003
631,-0.003
632,-0.003
633,-0.003
634,-0.002
635,-0.002
636,-0.003
637,-0.002
638,-0.003
639,-0.003
640,-0.003
641,-0.003
642,-0.003
643,-0.003
644,-0.003
645,-0.003
646,-0.003
647,-0.003
648,-0.003
649,-0.003
650,-0.003
651,-0.002
652,-0.002
653,-0.002
654,-0.002
655,-0.002
656,-0.002
657,-0.003
658,-0.003
659,-0.003
660,-0.003
661,-0.003
662,-0.003
663,-0.002
664,-0.002
665,-0.003
666,-0.004
667,-0.004
668,-0.004
669,-0.003
670,-0.002
671,-0.002
672,-0.002
673,-0.003
674,-0.002
675,-0.002
676,-0.002
677,-0.003
678,-0.003
679,-0.004
680,-0.004
681,-0.004
682,-0.004
683,-0.004
684,-0.003
685,-0.002
686,-0.002
687,-0.003
688,-0.003
689,-0.002
690,-0.002
691,-0.003
692,-0.003
693,-0.003
694,-0.004
695,-0.003
696,-0.003
697,-0.003
698,-0.002
699,-0.002
700,-0.002
701,-0.002
702,-0.002
703,-0.001
704,-0.002
705,-0.003
706,-0.004
707,-0.003
708,-0.002
709,-0.002
710,-0.002
711,-0.002
712,-0.001
713,-0.003
714,-0.003
715,-0.004
716,-0.004
717,-0.004
718,-0.004
719,-0.003
720,-0.003
721,-0.003
722,-0.003
723,-0.002
724,-0.002
725,-0.002
726,-0.002
727,-0.002
728,-0.002
729,-0.003
730,-0.003
731,-0.003
732,-0.004
733,-0.003
734,-0.003
735,-0.003
736,-0.002
737,-0.002
738,-0.003
739,-0.004
740,-0.003
741,-0.002
742,-0.002
743,-0.002
744,-0.002
745,-0.002
746,0.000
747,0.000
748,-0.001
749,-0.002
750,-0.002
751,-0.003
752,-0.003
753,-0.003
754,-0.003
755,-0.004
756,-0.004
757,-0.004
758,-0.003
759,-0.002
760,-0.002
761,-0.004
762,-0.003
763,-0.003
764,-0.003
765,-0.003
766,-0.003
767,-0.003
768,-0.003
769,-0.003
770,-0.004
771,-0.005
772,-0.004
773,-0.002
774,-0.002
775,-0.002
776,-0.004
777,-0.004
778,-0.003
779,-0.001
780,-0.002
781,-0.003
782,-0.001
783,-0.001
784,-0.001
785,-0.001
786,-0.003
787,-0.004
788,-0.003
789,-0.002
790,-0.004
791,-0.006
792,-0.004
793,-0.002
794,-0.001
795,-0.001
796,-0.003
797,-0.004
798,-0.003
799,-0.003
800,-0.004
801,-0.004
802,-0.006
803,-0.005
804,-0.005
805,-0.005
806,-0.003
807,-0.006
808,-0.006
809,-0.006
810,-0.005
811,-0.002
812,0.000
813,0.001
814,0.001
815,-0.001
816,-0.005
817,-0.006
818,-0.003
819,-0.002
820,-0.004
821,-0.004
822,-0.004
823,-0.003
824,-0.003
825,-0.003
826,-0.003
827,-0.004
828,-0.002
829,-0.002
830,-0.002
831,-0.002
832,-0.003
833,-0.004
834,-0.005
835,-0.005
836,-0.004
837,-0.003
838,-0.001
839,-0.001
840,-0.001
841,-0.002
842,-0.004
843,-0.008
844,-0.007
845,-0.003
846,0.000
847,0.001
848,0.003
849,0.001
850,-0.003
851,-0.004
852,-0.002
853,-0.006
854,-0.006
855,-0.006
856,-0.007
857,-0.001
858,0.002
859,-0.001
860,-0.007
861,-0.008
862,-0.003
863,-0.002
864,-0.004
865,-0.002
866,-0.001
867,-0.002
868,-0.005
869,-0.008
870,-0.010
871,-0.003
872,0.001
873,-0.003
874,-0.005
875,-0.004
876,-0.001
877,-0.001
878,-0.005
879,-0.005
880,-0.003
881,-0.002
882,-0.003
883,-0.002
884,-0.003
885,-0.004
886,-0.003
887,-0.006
888,-0.007
889,-0.002
890,0.002
891,-0.003
892,-0.007
893,-0.007
894,-0.003
895,-0.001
896,-0.001
897,-0.007
898,-0.006
899,-0.003
900,-0.003