Wavelength,Absorbance
200,0.553
201,0.727
202,0.914
203,1.127
204,1.321
205,1.429
206,1.457
207,1.416
208,1.421
209,1.397
210,1.358
211,1.299
212,1.247
213,1.186
214,1.100
215,1.014
216,0.928
217,0.844
218,0.765
219,0.688
220,0.615
221,0.554
222,0.501
223,0.458
224,0.424
225,0.397
226,0.376
227,0.360
228,0.347
229,0.337
230,0.329
231,0.323
232,0.320
233,0.317
234,0.316
235,0.317
236,0.319
237,0.324
238,0.331
239,0.341
240,0.352
241,0.365
242,0.379
243,0.393
244,0.411
245,0.433
246,0.455
247,0.473
248,0.492
249,0.515
250,0.539
251,0.562
252,0.582
253,0.601
254,0.617
255,0.631
256,0.645
257,0.657
258,0.666
259,0.670
260,0.669
261,0.665
262,0.659
263,0.648
264,0.634
265,0.615
266,0.594
267,0.568
268,0.540
269,0.507
270,0.472
271,0.436
272,0.401
273,0.367
274,0.334
275,0.301
276,0.270
277,0.241
278,0.215
279,0.190
280,0.167
281,0.146
282,0.128
283,0.113
284,0.100
285,0.090
286,0.083
287,0.078
288,0.075
289,0.073
290,0.073
291,0.073
292,0.074
293,0.076
294,0.078
295,0.081
296,0.083
297,0.086
298,0.090
299,0.093
300,0.098
301,0.102
302,0.107
303,0.112
304,0.117
305,0.122
306,0.128
307,0.134
308,0.140
309,0.145
310,0.151
311,0.157
312,0.164
313,0.170
314,0.176
315,0.182
316,0.188
317,0.194
318,0.201
319,0.207
320,0.213
321,0.219
322,0.224
323,0.230
324,0.234
325,0.239
326,0.244
327,0.248
328,0.253
329,0.258
330,0.262
331,0.265
332,0.269
333,0.271
334,0.274
335,0.276
336,0.278
337,0.278
338,0.278
339,0.279
340,0.278
341,0.277
342,0.276
343,0.276
344,0.274
345,0.272
346,0.268
347,0.264
348,0.260
349,0.257
350,0.252
351,0.247
352,0.242
353,0.236
354,0.231
355,0.225
356,0.218
357,0.211
358,0.205
359,0.198
360,0.191
361,0.184
362,0.177
363,0.170
364,0.163
365,0.155
366,0.147
367,0.140
368,0.133
369,0.126
370,0.119
371,0.111
372,0.105
373,0.098
374,0.092
375,0.086
376,0.080
377,0.073
378,0.067
379,0.062
380,0.057
381,0.053
382,0.048
383,0.044
384,0.040
385,0.036
386,0.032
387,0.029
388,0.026
389,0.023
390,0.021
391,0.019
392,0.017
393,0.015
394,0.014
395,0.013
396,0.011
397,0.010
398,0.009
399,0.008
400,0.007
401,0.007
402,0.006
403,0.005
404,0.005
405,0.005
406,0.004
407,0.004
408,0.003
409,0.003
410,0.003
411,0.003
412,0.003
413,0.003
414,0.003
415,0.002
416,0.002
417,0.003
418,0.002
419,0.002
420,0.002
421,0.002
422,0.002
423,0.002
424,0.002
425,0.002
426,0.002
427,0.002
428,0.002
429,0.002
430,0.002
431,0.002
432,0.002
433,0.002
434,0.002
435,0.002
436,0.002
437,0.002
438,0.002
439,0.002
440,0.002
441,0.001
442,0.001
443,0.001
444,0.002
445,0.001
446,0.001
447,0.001
448,0.001
449,0.002
450,0.002
451,0.002
452,0.001
453,0.001
454,0.001
455,0.001
456,0.001
457,0.002
458,0.002
459,0.002
460,0.001
461,0.001
462,0.001
463,0.001
464,0.001
465,0.002
466,0.002
467,0.001
468,0.001
469,0.001
470,0.001
471,0.002
472,0.002
473,0.001
474,0.001
475,0.001
476,0.001
477,0.002
478,0.001
479,0.002
480,0.002
481,0.002
482,0.002
483,0.001
484,0.001
485,0.001
486,0.001
487,0.001
488,0.001
489,0.001
490,0.001
491,0.001
492,0.001
493,0.001
494,0.001
495,0.001
496,0.001
497,0.001
498,0.001
499,0.001
500,0.001
501,0.001
502,0.002
503,0.001
504,0.002
505,0.002
506,0.002
507,0.001
508,0.001
509,0.002
510,0.001
511,0.001
512,0.001
513,0.001
514,0.001
515,0.001
516,0.001
517,0.001
518,0.000
519,0.001
520,0.001
521,0.001
522,0.002
523,0.002
524,0.002
525,0.001
526,0.001
527,0.001
528,0.001
529,0.000
530,0.000
531,0.001
532,0.001
533,0.001
534,0.001
535,0.001
536,0.001
537,0.001
538,0.001
539,0.001
540,0.001
541,0.001
542,0.001
543,0.001
544,0.001
545,0.001
546,0.002
547,0.002
548,0.002
549,0.001
550,0.001
551,0.002
552,0.001
553,0.001
554,0.001
555,0.001
556,0.001
557,0.002
558,0.001
559,0.001
560,0.001
561,0.002
562,0.001
563,0.001
564,0.001
565,0.001
566,0.001
567,0.001
568,0.002
569,0.001
570,0.001
571,0.001
572,0.001
573,0.001
574,0.001
575,0.002
576,0.001
577,0.001
578,0.001
579,0.001
580,0.001
581,0.001
582,0.001
583,0.001
584,0.001
585,0.001
586,0.001
587,0.001
588,0.001
589,0.001
590,0.001
591,0.001
592,0.001
593,0.001
594,0.002
595,0.002
596,0.002
597,0.002
598,0.001
599,0.001
600,0.001
601,0.001
602,0.001
603,0.001
604,0.001
605,0.002
606,0.001
607,0.002
608,0.002
609,0.002
610,0.001
611,0.001
612,0.002
613,0.001
614,0.001
615,0.002
616,0.002
617,0.002
618,0.002
619,0.002
620,0.002
621,0.001
622,0.001
623,0.002
624,0.002
625,0.001
626,0.002
627,0.001
628,0.000
629,0.000
630,0.000
631,0.001
632,0.001
633,0.001
634,0.001
635,0.000
636,0.000
637,0.000
638,0.000
639,0.001
640,0.001
641,0.001
642,0.001
643,0.001
644,0.001
645,0.001
646,0.000
647,0.001
648,0.001
649,0.003
650,0.002
651,0.002
652,0.001
653,0.001
654,0.001
655,0.001
656,0.001
657,0.002
658,0.002
659,0.002
660,0.001
661,0.001
662,0.002
663,0.002
664,0.001
665,0.002
666,0.002
667,0.002
668,0.002
669,0.003
670,0.002
671,0.001
672,0.001
673,0.001
674,0.001
675,0.001
676,0.001
677,0.001
678,0.002
679,0.002
680,0.002
681,0.002
682,0.002
683,0.002
684,0.002
685,0.002
686,0.001
687,0.000
688,0.000
689,0.000
690,0.001
691,0.001
692,0.002
693,0.002
694,0.002
695,0.002
696,0.002
697,0.002
698,0.001
699,0.001
700,0.001
701,0.002
702,0.002
703,0.002
704,0.001
705,0.001
706,0.001
707,0.001
708,0.001
709,0.002
710,0.001
711,0.001
712,0.000
713,0.001
714,0.001
715,0.001
716,0.001
717,0.001
718,0.001
719,0.002
720,0.002
721,0.001
722,0.002
723,0.001
724,-0.001
725,-0.001
726,-0.001
727,0.000
728,0.001
729,0.002
730,0.001
731,0.001
732,0.001
733,0.002
734,0.002
735,0.003
736,0.002
737,0.001
738,0.001
739,0.001
740,0.001
741,0.001
742,0.001
743,0.000
744,0.000
745,0.000
746,0.002
747,0.001
748,0.003
749,0.003
750,0.002
751,0.001
752,0.001
753,0.002
754,0.003
755,0.003
756,0.002
757,0.001
758,0.002
759,0.001
760,0.000
761,0.000
762,0.002
763,0.002
764,0.000
765,0.000
766,0.000
767,0.001
768,0.003
769,0.004
770,0.003
771,0.003
772,0.002
773,0.002
774,0.001
775,0.002
776,0.002
777,0.000
778,0.000
779,-0.001
780,-0.001
781,-0.001
782,0.000
783,0.000
784,0.001
785,0.000
786,0.001
787,0.002
788,0.001
789,0.000
790,0.002
791,0.004
792,0.004
793,0.002
794,0.001
795,-0.002
796,0.000
797,0.001
798,0.002
799,0.002
800,0.004
801,0.003
802,0.001
803,0.002
804,0.003
805,0.003
806,0.002
807,0.003
808,0.003
809,0.003
810,0.001
811,-0.002
812,-0.003
813,0.002
814,0.002
815,0.001
816,0.002
817,0.001
818,-0.001
819,0.000
820,0.002
821,0.002
822,0.001
823,0.001
824,0.001
825,0.002
826,0.001
827,0.000
828,-0.001
829,0.000
830,0.002
831,0.001
832,0.000
833,0.001
834,0.003
835,0.002
836,0.002
837,0.003
838,0.003
839,0.003
840,0.003
841,0.003
842,0.003
843,0.002
844,0.003
845,0.003
846,0.003
847,0.002
848,0.000
849,0.004
850,0.004
851,0.006
852,0.002
853,-0.005
854,-0.003
855,0.004
856,0.004
857,0.000
858,-0.002
859,0.004
860,0.005
861,0.007
862,0.002
863,-0.001
864,-0.003
865,-0.001
866,0.003
867,0.002
868,-0.003
869,-0.002
870,-0.002
871,-0.002
872,0.001
873,0.000
874,-0.003
875,0.001
876,0.001
877,0.004
878,0.006
879,0.006
880,0.002
881,0.001
882,-0.001
883,-0.002
884,-0.003
885,-0.001
886,-0.001
887,0.000
888,0.001
889,-0.001
890,-0.002
891,0.002
892,0.003
893,0.002
894,0.001
895,-0.001
896,0.001
897,0.004
898,0.005
899,0.001
900,-0.002