Wavelength,Absorbance
200,0.224
201,0.379
202,0.487
203,0.568
204,0.585
205,0.586
206,0.573
207,0.560
208,0.545
209,0.527
210,0.503
211,0.480
212,0.454
213,0.428
214,0.398
215,0.366
216,0.332
217,0.301
218,0.270
219,0.242
220,0.215
221,0.194
222,0.176
223,0.162
224,0.150
225,0.140
226,0.132
227,0.127
228,0.122
229,0.118
230,0.115
231,0.114
232,0.113
233,0.112
234,0.112
235,0.112
236,0.113
237,0.115
238,0.117
239,0.120
240,0.124
241,0.128
242,0.133
243,0.137
244,0.144
245,0.151
246,0.158
247,0.163
248,0.170
249,0.178
250,0.187
251,0.196
252,0.203
253,0.209
254,0.215
255,0.220
256,0.225
257,0.229
258,0.231
259,0.232
260,0.231
261,0.229
262,0.228
263,0.225
264,0.220
265,0.214
266,0.206
267,0.198
268,0.188
269,0.177
270,0.164
271,0.152
272,0.140
273,0.128
274,0.117
275,0.106
276,0.096
277,0.086
278,0.077
279,0.068
280,0.060
281,0.053
282,0.047
283,0.042
284,0.038
285,0.035
286,0.033
287,0.031
288,0.030
289,0.029
290,0.029
291,0.029
292,0.029
293,0.030
294,0.031
295,0.032
296,0.033
297,0.033
298,0.034
299,0.036
300,0.037
301,0.039
302,0.040
303,0.042
304,0.044
305,0.045
306,0.047
307,0.049
308,0.051
309,0.053
310,0.055
311,0.057
312,0.060
313,0.062
314,0.064
315,0.066
316,0.068
317,0.070
318,0.072
319,0.074
320,0.076
321,0.079
322,0.081
323,0.083
324,0.084
325,0.085
326,0.087
327,0.088
328,0.090
329,0.092
330,0.094
331,0.095
332,0.096
333,0.096
334,0.097
335,0.098
336,0.099
337,0.099
338,0.100
339,0.099
340,0.099
341,0.098
342,0.098
343,0.098
344,0.097
345,0.096
346,0.095
347,0.094
348,0.093
349,0.092
350,0.090
351,0.088
352,0.087
353,0.085
354,0.083
355,0.081
356,0.078
357,0.076
358,0.074
359,0.071
360,0.069
361,0.066
362,0.064
363,0.062
364,0.060
365,0.057
366,0.054
367,0.052
368,0.049
369,0.047
370,0.045
371,0.042
372,0.040
373,0.038
374,0.036
375,0.034
376,0.031
377,0.029
378,0.027
379,0.025
380,0.024
381,0.022
382,0.021
383,0.019
384,0.018
385,0.016
386,0.015
387,0.014
388,0.013
389,0.012
390,0.011
391,0.011
392,0.010
393,0.010
394,0.009
395,0.009
396,0.009
397,0.008
398,0.008
399,0.007
400,0.007
401,0.006
402,0.006
403,0.006
404,0.006
405,0.006
406,0.006
407,0.005
408,0.005
409,0.006
410,0.005
411,0.005
412,0.005
413,0.005
414,0.005
415,0.005
416,0.004
417,0.005
418,0.005
419,0.005
420,0.005
421,0.005
422,0.005
423,0.005
424,0.005
425,0.005
426,0.005
427,0.005
428,0.005
429,0.005
430,0.005
431,0.005
432,0.005
433,0.005
434,0.004
435,0.005
436,0.005
437,0.005
438,0.005
439,0.005
440,0.005
441,0.005
442,0.005
443,0.005
444,0.005
445,0.004
446,0.004
447,0.004
448,0.005
449,0.005
450,0.005
451,0.004
452,0.005
453,0.005
454,0.005
455,0.005
456,0.005
457,0.005
458,0.005
459,0.005
460,0.005
461,0.005
462,0.004
463,0.004
464,0.004
465,0.005
466,0.005
467,0.005
468,0.005
469,0.005
470,0.005
471,0.005
472,0.005
473,0.005
474,0.004
475,0.004
476,0.004
477,0.004
478,0.004
479,0.005
480,0.005
481,0.005
482,0.005
483,0.004
484,0.004
485,0.004
486,0.004
487,0.004
488,0.004
489,0.004
490,0.004
491,0.004
492,0.004
493,0.005
494,0.005
495,0.005
496,0.005
497,0.005
498,0.005
499,0.005
500,0.005
501,0.005
502,0.005
503,0.005
504,0.005
505,0.005
506,0.005
507,0.004
508,0.005
509,0.005
510,0.005
511,0.005
512,0.004
513,0.004
514,0.004
515,0.004
516,0.004
517,0.004
518,0.004
519,0.004
520,0.004
521,0.004
522,0.004
523,0.004
524,0.004
525,0.004
526,0.004
527,0.004
528,0.003
529,0.003
530,0.003
531,0.004
532,0.004
533,0.004
534,0.004
535,0.004
536,0.004
537,0.004
538,0.004
539,0.004
540,0.004
541,0.004
542,0.004
543,0.004
544,0.004
545,0.004
546,0.004
547,0.004
548,0.004
549,0.004
550,0.005
551,0.005
552,0.004
553,0.004
554,0.004
555,0.005
556,0.005
557,0.004
558,0.004
559,0.004
560,0.004
561,0.004
562,0.005
563,0.005
564,0.005
565,0.003
566,0.003
567,0.003
568,0.005
569,0.004
570,0.004
571,0.004
572,0.004
573,0.004
574,0.004
575,0.004
576,0.004
577,0.004
578,0.005
579,0.004
580,0.005
581,0.005
582,0.005
583,0.004
584,0.005
585,0.005
586,0.005
587,0.004
588,0.004
589,0.004
590,0.005
591,0.005
592,0.004
593,0.004
594,0.004
595,0.004
596,0.004
597,0.004
598,0.004
599,0.004
600,0.004
601,0.004
602,0.003
603,0.003
604,0.003
605,0.003
606,0.003
607,0.003
608,0.004
609,0.003
610,0.004
611,0.004
612,0.004
613,0.004
614,0.005
615,0.005
616,0.005
617,0.004
618,0.004
619,0.004
620,0.004
621,0.004
622,0.004
623,0.004
624,0.004
625,0.003
626,0.004
627,0.004
628,0.003
629,0.003
630,0.003
631,0.003
632,0.003
633,0.004
634,0.003
635,0.002
636,0.002
637,0.003
638,0.003
639,0.003
640,0.003
641,0.004
642,0.004
643,0.004
644,0.003
645,0.004
646,0.003
647,0.004
648,0.005
649,0.006
650,0.005
651,0.004
652,0.003
653,0.003
654,0.003
655,0.004
656,0.004
657,0.004
658,0.004
659,0.004
660,0.004
661,0.003
662,0.004
663,0.004
664,0.004
665,0.003
666,0.003
667,0.004
668,0.004
669,0.004
670,0.004
671,0.004
672,0.003
673,0.003
674,0.003
675,0.004
676,0.004
677,0.003
678,0.004
679,0.004
680,0.005
681,0.005
682,0.004
683,0.004
684,0.004
685,0.004
686,0.004
687,0.003
688,0.003
689,0.003
690,0.003
691,0.003
692,0.003
693,0.004
694,0.004
695,0.004
696,0.004
697,0.003
698,0.003
699,0.003
700,0.004
701,0.004
702,0.004
703,0.003
704,0.003
705,0.003
706,0.003
707,0.003
708,0.004
709,0.004
710,0.003
711,0.004
712,0.004
713,0.005
714,0.005
715,0.003
716,0.003
717,0.003
718,0.004
719,0.004
720,0.003
721,0.003
722,0.004
723,0.003
724,0.002
725,0.002
726,0.002
727,0.002
728,0.003
729,0.004
730,0.004
731,0.003
732,0.004
733,0.003
734,0.003
735,0.003
736,0.004
737,0.005
738,0.004
739,0.003
740,0.003
741,0.004
742,0.004
743,0.003
744,0.003
745,0.003
746,0.004
747,0.002
748,0.003
749,0.002
750,0.003
751,0.003
752,0.003
753,0.004
754,0.004
755,0.004
756,0.003
757,0.003
758,0.004
759,0.002
760,0.001
761,0.002
762,0.004
763,0.003
764,0.003
765,0.002
766,0.004
767,0.004
768,0.003
769,0.003
770,0.003
771,0.003
772,0.003
773,0.003
774,0.002
775,0.000
776,0.000
777,0.001
778,0.002
779,0.002
780,0.002
781,0.003
782,0.005
783,0.005
784,0.002
785,0.000
786,-0.001
787,0.000
788,0.000
789,0.001
790,0.002
791,0.001
792,0.002
793,0.004
794,0.006
795,0.005
796,0.004
797,0.004
798,0.003
799,0.002
800,0.006
801,0.007
802,0.004
803,0.003
804,0.004
805,0.005
806,0.005
807,0.002
808,-0.001
809,-0.001
810,0.002
811,0.001
812,-0.001
813,0.001
814,0.004
815,0.003
816,0.006
817,0.006
818,0.003
819,0.003
820,0.003
821,0.003
822,0.003
823,0.003
824,0.003
825,0.003
826,0.004
827,0.004
828,0.004
829,0.004
830,0.004
831,0.003
832,0.002
833,0.004
834,0.006
835,0.006
836,0.007
837,0.007
838,0.003
839,0.002
840,0.004
841,0.005
842,0.006
843,0.003
844,0.001
845,0.007
846,0.006
847,0.003
848,0.002
849,0.001
850,0.003
851,0.002
852,0.003
853,0.001
854,0.002
855,0.006
856,0.005
857,0.001
858,0.002
859,0.005
860,0.008
861,0.011
862,0.006
863,0.002
864,0.001
865,0.008
866,0.009
867,0.004
868,-0.001
869,-0.004
870,-0.002
871,-0.003
872,0.000
873,0.001
874,-0.002
875,0.001
876,0.003
877,0.005
878,0.008
879,0.007
880,0.005
881,0.003
882,0.002
883,0.000
884,-0.001
885,0.001
886,0.001
887,0.000
888,0.000
889,-0.002
890,-0.004
891,-0.003
892,0.001
893,0.003
894,0.003
895,0.003
896,0.004
897,0.007
898,0.009
899,0.005
900,0.005